Temps (s) 	 Thermocouple (°C) 	 Lumière 	 Pression (Pa)
0.43	21.02	23.00	97767.86
1.48	21.02	90.00	97544.64
2.53	21.02	94.00	97544.64
3.58	21.02	96.00	97767.86
4.62	21.02	97.00	97767.86
5.67	21.02	98.00	97767.86
6.72	21.02	98.00	97767.86
7.76	21.02	98.00	97767.86
8.81	21.02	98.00	97767.86
9.86	21.02	98.00	97767.86
10.91	21.02	97.00	97767.86
11.96	21.02	98.00	97544.64
13.00	21.02	98.00	97544.64
14.05	21.02	98.00	97544.64
15.10	21.02	98.00	97767.86
16.15	21.02	98.00	97544.64
17.20	21.02	99.00	97767.86
18.25	21.02	100.00	97767.86
19.30	21.02	99.00	97767.86
20.35	21.02	99.00	97544.64
21.39	21.02	99.00	97544.64
22.44	21.02	99.00	97767.86
23.49	21.02	95.00	97544.64
24.54	21.02	96.00	97544.64
25.59	21.02	96.00	97544.64
26.64	21.02	95.00	97767.86
27.69	21.02	94.00	97544.64
28.73	21.02	94.00	97544.64
29.78	21.02	94.00	97544.64
30.83	21.02	94.00	97544.64
31.88	21.02	94.00	97767.86
32.93	21.02	96.00	97544.64
33.98	21.02	96.00	97767.86
35.03	21.02	96.00	97544.64
36.08	21.02	96.00	97767.86
37.13	21.02	96.00	97767.86
38.18	21.02	96.00	97767.86
39.22	21.02	96.00	97544.64
40.27	21.02	96.00	97767.86
41.32	21.02	96.00	97767.86
42.37	21.02	96.00	97767.86
43.42	21.02	96.00	97767.86
44.47	21.02	97.00	97544.64
45.51	21.02	97.00	97767.86
46.56	21.02	97.00	97767.86
47.61	21.02	97.00	97544.64
48.66	21.02	97.00	97544.64
49.71	21.02	97.00	97544.64
50.76	21.02	97.00	97544.64
51.81	21.02	97.00	97767.86
52.85	21.02	97.00	97544.64
53.90	21.02	96.00	97544.64
54.95	21.02	96.00	97767.86
56.00	21.02	96.00	97544.64
57.05	21.02	97.00	97767.86
58.10	21.02	97.00	97767.86
59.15	21.02	97.00	97544.64
60.20	21.02	96.00	97544.64
61.25	21.02	96.00	97767.86
62.29	21.02	96.00	97767.86
63.34	21.02	96.00	97544.64
64.39	21.02	96.00	97767.86
65.44	21.02	97.00	97767.86
66.49	21.02	97.00	97544.64
67.54	21.02	97.00	97544.64
68.58	21.02	97.00	97544.64
69.63	21.02	97.00	97767.86
70.68	21.02	97.00	97767.86
71.73	21.02	97.00	97544.64
72.78	21.02	97.00	97767.86
73.83	21.02	97.00	97767.86
74.88	21.02	97.00	97767.86
75.93	21.02	97.00	97544.64
76.98	21.02	97.00	97767.86
78.02	21.02	97.00	97767.86
79.07	21.02	97.00	97544.64
80.12	21.02	97.00	97544.64
81.17	21.02	97.00	97544.64
82.22	21.02	97.00	97767.86
83.27	21.02	97.00	97544.64
84.32	21.02	97.00	97544.64
85.36	21.02	97.00	97767.86
86.41	21.02	97.00	97767.86
87.46	21.02	97.00	97544.64
88.51	21.02	97.00	97544.64
89.56	21.02	97.00	97544.64
90.61	21.02	97.00	97544.64
91.66	21.02	97.00	97767.86
92.70	21.02	97.00	97544.64
93.75	21.02	97.00	97767.86
94.80	21.02	97.00	97767.86
95.85	21.02	97.00	97544.64
96.90	21.02	97.00	97544.64
97.95	21.02	97.00	97767.86
99.00	21.02	97.00	97767.86
100.05	21.02	97.00	97767.86
101.10	21.02	97.00	97767.86
102.15	21.02	96.00	97544.64
103.20	21.02	96.00	97544.64
104.25	21.02	96.00	97767.86
105.29	21.02	97.00	97544.64
106.37	21.02	97.00	97544.64
107.42	21.02	96.00	97544.64
108.47	21.02	96.00	97544.64
109.52	21.02	96.00	97767.86
110.57	21.02	97.00	97544.64
111.62	21.02	97.00	97544.64
112.67	21.02	97.00	97544.64
113.72	21.02	96.00	97544.64
114.77	21.02	96.00	97544.64
115.82	21.02	96.00	97544.64
Temps (s) 	 Thermocouple (°C) 	 Lumière 	 Pression (Pa)
Temps (s) 	 Thermocouple (°C) 	 Lumière 	 Pression (Pa)
0.02	21.02	191.00	97767.86
1.07	21.02	224.00	97767.86
2.12	21.02	213.00	97767.86
3.17	21.02	211.00	97767.86
4.22	21.02	205.00	97767.86
5.27	21.02	145.00	97767.86
6.32	21.02	164.00	97767.86
7.36	21.02	231.00	97767.86
8.41	21.02	246.00	97767.86
9.46	21.02	249.00	97767.86
10.51	21.51	245.00	97767.86
11.56	21.02	220.00	97767.86
12.61	21.02	224.00	97767.86
13.66	21.02	217.00	97767.86
14.71	21.02	197.00	97767.86
15.76	21.02	158.00	97767.86
16.81	21.02	163.00	97767.86
17.86	21.02	172.00	97767.86
18.91	21.02	176.00	97767.86
19.96	21.02	221.00	97767.86
21.01	21.02	227.00	97767.86
22.06	21.51	207.00	97767.86
23.11	21.02	197.00	97767.86
24.16	21.02	187.00	97767.86
25.21	21.02	183.00	97767.86
26.26	21.51	203.00	97767.86
27.30	21.51	197.00	97767.86
28.35	21.02	185.00	97767.86
29.40	21.51	194.00	97767.86
30.46	21.02	195.00	97767.86
31.51	21.02	192.00	97767.86
32.56	21.02	191.00	97767.86
33.61	21.02	193.00	97767.86
34.66	21.51	197.00	97767.86
35.71	21.02	189.00	97544.64
36.76	21.51	188.00	97767.86
37.81	21.51	200.00	97767.86
38.85	21.51	212.00	97767.86
39.90	21.02	208.00	97767.86
40.95	21.02	207.00	97767.86
42.00	21.02	168.00	97767.86
43.05	21.51	173.00	97767.86
44.10	21.02	168.00	97544.64
45.15	21.02	173.00	97767.86
46.20	21.02	169.00	97767.86
47.25	21.51	180.00	97767.86
48.30	21.51	173.00	97767.86
49.35	21.02	167.00	97767.86
50.40	21.02	172.00	97767.86
51.45	21.02	155.00	97767.86
52.50	21.02	153.00	97767.86
53.55	21.02	110.00	97544.64
54.60	21.51	109.00	97544.64
55.65	21.02	109.00	97544.64
56.70	21.02	108.00	97544.64
57.75	21.02	108.00	97544.64
58.80	21.02	107.00	97544.64
59.85	21.51	107.00	97544.64
60.90	21.02	106.00	97767.86
61.95	21.51	105.00	97544.64
63.00	21.02	105.00	97544.64
Temps (s) 	 Thermocouple (°C) 	 Lumière 	 Pression (Pa)
0.45	23.46	29.00	97767.86
1.50	23.46	90.00	97767.86
Temps (s) 	 Thermocouple (°C) 	 Lumière 	 Pression (Pa)
0.41	20.53	722.00	97321.43
1.46	20.53	513.00	97321.43
2.51	20.53	519.00	97321.43
Temps (s) 	 Thermocouple (°C) 	 Lumière 	 Pression (Pa)
0.41	20.53	650.00	97321.43
1.46	20.53	650.00	97321.43
2.51	20.53	648.00	97321.43
3.56	20.53	649.00	97321.43
4.61	20.53	649.00	97321.43
5.66	20.53	650.00	97321.43
6.70	20.53	651.00	97321.43
7.75	20.53	650.00	97544.64
8.80	20.53	592.00	97321.43
9.85	20.53	654.00	97321.43
10.90	20.53	642.00	97321.43
11.95	20.53	656.00	97321.43
13.00	20.53	657.00	97321.43
14.05	20.53	655.00	97321.43
15.10	20.53	659.00	97321.43
16.15	20.53	642.00	97321.43
17.20	20.53	645.00	97321.43
18.25	20.53	647.00	97321.43
19.30	20.53	648.00	97321.43
20.35	20.53	648.00	97321.43
21.40	20.53	648.00	97544.64
22.45	20.53	648.00	97321.43
23.50	20.53	648.00	97321.43
24.55	20.53	648.00	97321.43
25.59	20.53	648.00	97321.43
26.64	20.53	648.00	97321.43
27.69	20.53	647.00	97321.43
28.74	20.53	662.00	97321.43
29.80	20.53	687.00	97321.43
30.85	20.53	689.00	97098.21
Temps (s) 	 Thermocouple (°C) 	 Lumière 	 Pression (Pa)
0.41	20.53	687.00	97321.43
1.46	20.53	687.00	97321.43
2.51	20.53	686.00	97321.43
3.56	20.53	682.00	97321.43
Temps (s) 	 Thermocouple (°C) 	 Lumière 	 Pression (Pa)
0.41	17.11	992.00	97321.43
1.46	17.11	992.00	97321.43
2.51	17.11	994.00	96651.79
3.56	16.62	999.00	96205.36
4.61	16.62	990.00	96205.36
5.66	16.62	998.00	96205.36
6.70	16.62	999.00	95982.14
7.75	16.62	992.00	96205.36
8.81	16.62	996.00	95982.14
9.85	16.62	998.00	95982.14
10.90	16.62	1002.00	95982.14
11.95	16.62	1000.00	95982.14
13.00	16.62	997.00	95982.14
14.05	16.62	998.00	96205.36
15.10	16.62	1002.00	95982.14
16.15	16.62	1001.00	95982.14
17.20	16.62	993.00	95982.14
18.25	16.62	992.00	95982.14
19.30	16.62	1000.00	96205.36
20.35	16.62	1000.00	95982.14
21.40	16.62	1000.00	96205.36
22.45	16.62	1004.00	95982.14
23.50	15.15	1004.00	96205.36
24.56	14.66	1005.00	95982.14
25.61	14.17	1005.00	95982.14
26.66	13.69	1005.00	95982.14
27.71	13.20	1005.00	95982.14
28.76	12.71	1005.00	95982.14
29.81	12.22	1005.00	95982.14
30.86	11.73	1005.00	95982.14
31.92	11.24	1007.00	95982.14
32.97	11.24	1006.00	95982.14
34.02	10.75	1007.00	95982.14
35.07	10.26	1007.00	96205.36
36.12	10.26	1008.00	95982.14
37.17	9.78	1007.00	95982.14
38.22	9.78	1008.00	95982.14
39.27	9.78	1005.00	95982.14
40.32	9.78	1008.00	95982.14
41.37	9.78	1005.00	95982.14
42.42	9.78	1006.00	95982.14
43.47	9.78	1006.00	96205.36
44.52	9.78	1006.00	95982.14
45.57	9.29	1006.00	95982.14
46.62	9.29	1006.00	96205.36
47.67	8.80	1006.00	95982.14
48.72	8.80	1005.00	95982.14
49.77	8.80	1005.00	95982.14
50.82	8.31	1006.00	95982.14
51.87	8.31	1007.00	95982.14
52.92	8.31	1007.00	95982.14
53.97	7.82	1006.00	95982.14
55.02	7.82	1007.00	95982.14
56.07	7.82	1007.00	95982.14
57.12	7.82	1006.00	95982.14
58.17	7.82	1007.00	95982.14
59.21	7.82	1005.00	95758.93
60.26	7.82	1007.00	95982.14
61.31	7.82	1007.00	95982.14
62.36	7.33	1007.00	95982.14
63.42	7.82	1006.00	95982.14
64.46	7.82	1006.00	95982.14
65.51	7.82	1006.00	95982.14
66.56	7.82	1006.00	95982.14
67.61	7.33	1005.00	95758.93
68.66	7.33	1006.00	95982.14
69.71	7.33	1006.00	95982.14
70.76	7.33	1006.00	95982.14
71.81	7.33	1006.00	95982.14
72.86	7.33	1006.00	95982.14
73.91	7.33	1007.00	95982.14
74.96	7.33	1006.00	95982.14
76.01	7.33	1006.00	95982.14
77.06	7.33	1006.00	95758.93
78.11	7.33	1007.00	95982.14
79.16	7.33	1007.00	95758.93
80.21	7.33	1008.00	95982.14
81.26	7.33	1007.00	95758.93
82.31	7.82	1007.00	95982.14
83.36	7.82	1007.00	95982.14
84.41	7.82	1007.00	95982.14
85.46	7.82	1007.00	95982.14
86.51	7.82	1005.00	95758.93
87.56	7.82	1004.00	95982.14
88.61	7.82	1005.00	95758.93
89.66	7.82	1004.00	95982.14
90.71	7.82	1006.00	95758.93
91.76	7.82	1005.00	95982.14
92.81	7.33	1006.00	95758.93
93.86	7.33	1006.00	95758.93
94.91	7.33	1006.00	95758.93
95.96	7.33	1007.00	95758.93
97.01	7.33	1007.00	95758.93
98.06	7.33	1008.00	95758.93
99.11	7.33	1008.00	95758.93
100.16	7.33	1008.00	95758.93
101.21	7.33	1008.00	95758.93
102.26	7.33	1008.00	95758.93
103.31	7.33	1007.00	95758.93
104.36	7.33	1007.00	95758.93
105.41	7.33	1006.00	95758.93
106.49	7.33	1005.00	95758.93
107.54	7.33	1006.00	95758.93
108.59	7.33	1007.00	95758.93
109.64	7.33	1007.00	95758.93
110.69	7.33	1007.00	95758.93
111.74	7.33	1006.00	95982.14
112.79	7.33	1005.00	95758.93
113.84	6.84	1005.00	95758.93
114.89	6.84	1007.00	95758.93
115.95	6.84	1007.00	95758.93
117.00	6.84	1007.00	95758.93
118.05	6.84	1007.00	95982.14
119.10	6.84	1008.00	95758.93
120.15	6.84	1008.00	95758.93
121.20	6.84	1008.00	95758.93
122.25	7.33	1007.00	95758.93
123.30	7.33	1008.00	95758.93
124.36	7.33	1008.00	95758.93
125.41	7.33	1008.00	95758.93
126.46	7.33	1008.00	95758.93
127.51	7.33	1007.00	95758.93
128.56	7.33	1007.00	95758.93
129.61	7.33	1005.00	95758.93
130.66	7.33	1006.00	95758.93
131.71	7.33	1006.00	95535.71
132.76	7.33	1006.00	95758.93
133.81	6.84	1006.00	95758.93
134.86	6.84	1006.00	95758.93
135.92	6.84	1006.00	95758.93
136.97	6.84	1005.00	95758.93
138.02	6.84	1007.00	95758.93
139.07	6.84	1006.00	95758.93
140.12	6.84	1005.00	95758.93
141.17	6.84	1006.00	95758.93
142.22	6.84	1005.00	95758.93
143.27	6.84	1006.00	95758.93
144.32	6.84	1006.00	95758.93
145.37	6.84	1007.00	95758.93
146.42	6.84	1007.00	95758.93
147.48	6.84	1007.00	95758.93
148.53	6.84	1006.00	95758.93
149.58	6.84	1006.00	95535.71
150.63	6.84	1006.00	95758.93
151.68	6.84	1005.00	95758.93
152.73	6.84	1006.00	95535.71
153.78	6.84	1006.00	95535.71
154.83	6.84	1006.00	95535.71
155.88	6.84	1007.00	95535.71
156.93	6.84	1007.00	95535.71
157.98	6.84	1007.00	95535.71
159.03	6.84	1007.00	95535.71
160.08	6.84	1007.00	95535.71
161.13	6.84	1007.00	95535.71
162.18	6.84	1007.00	95535.71
163.23	6.84	1007.00	95535.71
164.28	6.84	1007.00	95535.71
165.34	6.84	1007.00	95535.71
166.38	6.84	1006.00	95535.71
167.44	6.84	1006.00	95535.71
168.49	6.84	1006.00	95535.71
169.54	6.84	1005.00	95535.71
170.59	6.84	1006.00	95535.71
171.64	6.84	1005.00	95535.71
172.69	6.84	1005.00	95535.71
173.74	6.84	1006.00	95535.71
174.80	6.84	1006.00	95535.71
175.85	6.84	1006.00	95535.71
176.90	6.84	1006.00	95535.71
177.95	6.35	1005.00	95535.71
179.00	6.35	1005.00	95535.71
180.05	6.35	1006.00	95535.71
181.10	6.35	1006.00	95535.71
182.15	6.35	1006.00	95535.71
183.20	6.35	1006.00	95535.71
184.25	6.35	1006.00	95535.71
185.30	6.35	1006.00	95535.71
186.35	6.35	1006.00	95535.71
187.40	6.35	1005.00	95535.71
188.45	6.35	1004.00	95535.71
189.51	6.35	1006.00	95535.71
190.56	6.35	1006.00	95535.71
191.61	6.35	1006.00	95535.71
192.66	6.35	1006.00	95535.71
193.71	6.35	1006.00	95535.71
194.76	6.35	1004.00	95312.50
195.81	6.35	1006.00	95312.50
196.86	6.35	1004.00	95535.71
197.91	6.35	1006.00	95312.50
198.97	6.35	1005.00	95312.50
200.02	6.35	1005.00	95312.50
201.07	6.35	1005.00	95312.50
202.12	6.35	1006.00	95312.50
203.17	6.35	1006.00	95535.71
204.22	6.35	1005.00	95535.71
205.27	6.35	1006.00	95312.50
206.32	6.35	1005.00	95312.50
207.37	6.35	1006.00	95312.50
208.43	6.35	1006.00	95312.50
209.48	6.35	1006.00	95312.50
210.53	6.35	1006.00	95312.50
211.58	6.35	1006.00	95312.50
212.65	6.35	1005.00	95312.50
213.70	6.35	1005.00	95312.50
214.75	6.35	1005.00	95312.50
215.80	6.35	1005.00	95312.50
216.86	6.35	1005.00	95535.71
217.91	6.35	1006.00	95312.50
218.96	6.35	1006.00	95312.50
220.01	6.35	1006.00	95312.50
221.06	6.35	1006.00	95312.50
222.11	6.35	1006.00	95312.50
223.16	6.35	1006.00	95312.50
224.21	6.35	1007.00	95312.50
225.26	6.35	1006.00	95312.50
226.32	6.35	1006.00	95312.50
227.37	6.35	1005.00	95312.50
228.42	6.35	1005.00	95312.50
229.47	6.35	1005.00	95312.50
230.52	6.35	1006.00	95312.50
231.57	6.35	1005.00	95312.50
232.62	6.35	1005.00	95312.50
233.67	6.35	1005.00	95312.50
234.72	6.35	1005.00	95312.50
235.77	5.87	1005.00	95312.50
236.82	6.35	1005.00	95312.50
237.87	5.87	1005.00	95312.50
238.92	5.87	1003.00	95089.29
239.98	5.87	1003.00	95312.50
241.03	5.87	1002.00	95089.29
242.08	5.87	1001.00	95089.29
243.13	5.87	1003.00	95089.29
244.18	5.87	1004.00	95312.50
245.23	6.35	1002.00	95089.29
246.28	6.35	1004.00	95312.50
247.33	6.35	1004.00	95089.29
248.39	6.35	1006.00	95089.29
249.44	6.35	1006.00	95089.29
250.49	6.35	1002.00	95089.29
251.54	6.35	1002.00	95312.50
252.60	6.35	1005.00	95089.29
253.65	6.35	1005.00	95089.29
254.70	6.35	1005.00	95089.29
255.75	6.35	1006.00	95089.29
256.80	6.35	1007.00	95089.29
257.85	6.35	1007.00	95089.29
258.90	6.84	1006.00	95089.29
259.95	6.84	1006.00	95089.29
261.00	6.84	1005.00	95089.29
262.05	6.84	1004.00	95089.29
263.11	6.84	1005.00	95089.29
264.16	7.33	1005.00	95089.29
265.21	6.84	1006.00	95089.29
266.26	6.84	1007.00	95089.29
267.31	6.84	1007.00	95089.29
268.36	6.84	1007.00	95089.29
269.41	6.84	1007.00	95089.29
270.46	7.33	1007.00	95089.29
271.51	7.33	1006.00	95089.29
272.56	7.33	1007.00	95089.29
273.61	7.33	1007.00	95089.29
274.66	6.84	1006.00	95089.29
275.72	6.84	1007.00	95089.29
276.77	6.84	1007.00	95089.29
277.82	6.84	1007.00	95089.29
278.87	6.84	1007.00	95089.29
279.92	6.84	1007.00	95089.29
280.97	6.84	1007.00	95089.29
282.02	6.84	1007.00	95089.29
283.07	6.84	1006.00	95089.29
284.13	6.84	1007.00	95089.29
285.17	6.84	1007.00	95089.29
286.23	6.84	1005.00	95089.29
287.28	6.84	1005.00	95089.29
288.33	6.84	1004.00	95089.29
289.38	6.84	1004.00	94866.07
290.43	6.84	1004.00	95089.29
291.48	6.84	1005.00	95089.29
292.53	6.84	1004.00	94866.07
293.58	6.35	1004.00	94866.07
294.63	6.35	1006.00	95089.29
295.68	6.84	1006.00	94866.07
296.73	6.84	1006.00	94866.07
297.79	6.84	1006.00	94866.07
298.84	6.84	1007.00	94866.07
299.89	6.84	1005.00	94866.07
300.94	6.84	1003.00	94866.07
301.99	6.84	1005.00	94866.07
303.04	6.84	1004.00	95089.29
304.09	6.84	1004.00	95089.29
305.14	6.35	1004.00	94866.07
306.19	6.35	1004.00	94866.07
307.25	6.35	1005.00	94866.07
308.30	6.84	1006.00	94866.07
309.35	6.84	1004.00	95089.29
310.40	6.84	1000.00	94866.07
311.45	6.84	1005.00	95089.29
312.50	6.84	1004.00	94866.07
313.55	6.84	1006.00	94866.07
314.60	6.84	1006.00	94866.07
315.65	6.84	1006.00	94866.07
316.70	6.84	1006.00	94866.07
317.76	6.84	1006.00	94866.07
318.83	6.84	1006.00	94866.07
319.88	6.84	1006.00	94866.07
320.93	6.84	1006.00	94866.07
321.98	6.84	1006.00	94866.07
323.03	6.84	1006.00	94866.07
324.08	6.84	1006.00	94642.86
325.14	6.84	1006.00	94866.07
326.19	6.84	1006.00	94866.07
327.24	7.33	1006.00	94866.07
328.29	7.33	1006.00	94866.07
329.34	7.33	1006.00	94866.07
330.39	6.84	1004.00	94866.07
331.44	7.33	1006.00	94866.07
332.49	7.33	1006.00	94866.07
333.54	6.84	1007.00	94866.07
334.60	6.84	1006.00	94642.86
335.64	7.33	1007.00	94866.07
336.70	6.84	1007.00	94642.86
337.75	6.84	1007.00	94642.86
338.80	6.84	1007.00	94642.86
339.85	6.84	1007.00	94642.86
340.90	6.84	1004.00	94642.86
341.95	6.84	1007.00	94866.07
343.00	6.84	1007.00	94866.07
344.05	6.84	1007.00	94866.07
345.10	6.35	1006.00	94642.86
346.15	6.35	1007.00	94642.86
347.20	6.35	1007.00	94866.07
348.25	6.35	1007.00	94642.86
349.30	6.35	1007.00	94642.86
350.35	6.35	1007.00	94642.86
351.41	6.35	1007.00	94642.86
352.46	6.35	1007.00	94642.86
353.51	6.35	1007.00	94866.07
354.56	6.35	1007.00	94642.86
355.61	6.35	1006.00	94866.07
356.66	5.87	1007.00	94642.86
357.71	6.35	1007.00	94642.86
358.76	5.87	1007.00	94642.86
359.81	5.87	1007.00	94642.86
360.86	5.87	1007.00	94642.86
361.91	5.87	1007.00	94642.86
362.96	5.87	1007.00	94642.86
364.02	5.87	1007.00	94642.86
365.07	5.87	1007.00	94642.86
366.11	5.87	1008.00	94642.86
367.17	5.87	1008.00	94642.86
368.22	5.87	1007.00	94642.86
369.27	5.87	1008.00	94642.86
370.32	5.87	1008.00	94642.86
371.37	5.87	1009.00	94642.86
372.42	5.87	1008.00	94642.86
373.47	6.35	1008.00	94642.86
374.52	6.35	1008.00	94642.86
375.58	6.35	1008.00	94642.86
376.63	6.35	1007.00	94642.86
377.68	6.35	1007.00	94642.86
378.73	6.35	1006.00	94419.64
379.78	6.35	1007.00	94642.86
380.83	6.35	1007.00	94642.86
381.88	6.35	1006.00	94642.86
382.93	6.35	1007.00	94642.86
383.98	5.87	1006.00	94642.86
385.03	5.87	1006.00	94642.86
386.08	5.87	1005.00	94642.86
387.14	5.87	1006.00	94419.64
388.19	5.87	1006.00	94642.86
389.24	5.87	1007.00	94642.86
390.29	6.35	1007.00	94642.86
391.34	6.35	1007.00	94642.86
392.39	6.35	1008.00	94642.86
393.44	6.35	1008.00	94419.64
394.49	6.84	1008.00	94419.64
395.54	6.84	1007.00	94642.86
396.59	6.84	1008.00	94419.64
397.64	6.84	1008.00	94642.86
398.69	7.33	1008.00	94642.86
399.75	7.33	1008.00	94419.64
400.80	7.33	1008.00	94419.64
401.85	7.33	1009.00	94419.64
402.90	6.84	1008.00	94642.86
403.95	6.84	1008.00	94642.86
405.00	6.84	1008.00	94419.64
406.05	6.84	1008.00	94419.64
407.10	7.33	1007.00	94419.64
408.15	7.33	1007.00	94642.86
409.20	7.33	1008.00	94419.64
410.26	7.33	1006.00	94419.64
411.30	7.33	1007.00	94419.64
412.36	7.33	1008.00	94419.64
413.41	7.33	1008.00	94419.64
414.46	7.33	1008.00	94642.86
415.51	7.33	1009.00	94419.64
416.56	7.33	1009.00	94419.64
417.61	7.33	1008.00	94419.64
418.66	7.33	1008.00	94419.64
419.71	7.33	1008.00	94419.64
420.76	7.33	1009.00	94419.64
421.81	7.33	1008.00	94419.64
422.86	6.84	1007.00	94642.86
423.91	6.84	1008.00	94419.64
424.96	6.84	1008.00	94419.64
426.04	6.84	1008.00	94419.64
427.09	7.33	1008.00	94419.64
428.14	7.33	1008.00	94419.64
429.19	7.33	1008.00	94419.64
430.24	7.33	1008.00	94419.64
431.29	7.33	1008.00	94419.64
432.34	7.33	1009.00	94419.64
433.39	7.33	1009.00	94419.64
434.44	7.33	1009.00	94419.64
435.49	7.33	1009.00	94419.64
436.54	7.33	1009.00	94196.43
437.60	7.33	1009.00	94419.64
438.64	7.33	1009.00	94419.64
439.70	6.84	1009.00	94419.64
440.75	6.84	1008.00	94419.64
441.80	6.84	1008.00	94419.64
442.85	6.84	1005.00	94419.64
443.90	6.84	1007.00	94196.43
444.95	6.84	1005.00	94419.64
446.00	6.84	1006.00	94419.64
447.05	6.84	1007.00	94419.64
448.11	6.84	1007.00	94419.64
449.16	6.84	1007.00	94419.64
450.21	6.84	1008.00	94419.64
451.26	7.33	1008.00	94196.43
452.31	6.84	1007.00	94196.43
453.36	7.33	1005.00	94419.64
454.41	7.33	1004.00	94419.64
455.46	7.33	1004.00	94419.64
456.51	7.33	1005.00	94419.64
457.56	7.33	1005.00	94196.43
458.61	7.33	1006.00	94419.64
459.67	7.33	1006.00	94196.43
460.72	7.33	1007.00	94196.43
461.77	7.33	1007.00	94196.43
462.82	7.33	1006.00	94419.64
463.87	7.33	1006.00	94196.43
464.92	7.33	1006.00	94419.64
465.97	7.33	1006.00	94196.43
467.02	7.33	1006.00	94196.43
468.07	7.33	1000.00	94196.43
469.12	7.33	1001.00	94196.43
470.17	7.33	1005.00	94196.43
471.22	7.33	996.00	94196.43
472.27	7.33	998.00	94196.43
473.32	7.33	1000.00	94196.43
474.37	7.33	1003.00	94419.64
475.42	7.33	996.00	94196.43
476.47	7.33	993.00	94196.43
477.53	7.33	995.00	94196.43
478.58	7.33	999.00	94196.43
479.63	7.33	1009.00	94196.43
480.68	7.33	1010.00	94196.43
481.73	7.33	1009.00	94196.43
482.78	7.33	1009.00	94196.43
483.83	6.84	1007.00	94196.43
484.88	7.33	1008.00	94196.43
485.93	7.33	1008.00	94196.43
486.98	7.33	1008.00	94196.43
488.03	7.33	1008.00	94196.43
489.08	7.33	1008.00	94196.43
490.13	7.33	1008.00	94196.43
491.18	7.33	1008.00	94196.43
492.23	7.33	1008.00	94196.43
493.29	7.33	1008.00	94196.43
494.34	7.33	1008.00	94196.43
495.39	7.33	1008.00	94196.43
496.44	7.33	1008.00	94196.43
497.49	7.33	1008.00	94196.43
498.54	7.33	1008.00	94196.43
499.59	7.33	1008.00	94196.43
500.64	7.33	1008.00	94196.43
501.69	7.33	1009.00	94196.43
502.75	7.33	1008.00	94196.43
503.80	7.33	1009.00	94196.43
504.85	7.33	1008.00	94196.43
505.91	7.33	1009.00	94196.43
506.95	7.33	1009.00	94196.43
508.01	7.33	1009.00	94196.43
509.06	7.33	1009.00	94196.43
510.11	7.33	1009.00	94196.43
511.16	7.33	1009.00	93973.21
512.21	7.33	1008.00	94196.43
513.26	7.33	1007.00	94196.43
514.31	7.33	1007.00	94196.43
515.36	7.33	1007.00	94196.43
516.41	7.33	1007.00	94196.43
517.47	7.33	1008.00	94196.43
518.52	7.33	1009.00	94196.43
519.57	7.33	1009.00	94196.43
520.62	7.33	1010.00	94196.43
521.67	7.33	1009.00	94196.43
522.72	7.33	1010.00	93973.21
523.77	7.33	1010.00	94196.43
524.82	7.33	1010.00	94196.43
525.87	7.82	1010.00	93973.21
526.92	7.33	1010.00	93973.21
527.97	7.82	1010.00	93973.21
529.02	7.33	1010.00	93973.21
530.07	7.82	1010.00	94196.43
531.13	7.82	1010.00	94196.43
532.20	7.82	1010.00	93973.21
533.25	7.82	1010.00	93973.21
534.30	7.82	1010.00	93973.21
535.35	7.82	1010.00	93973.21
536.41	7.82	1010.00	94196.43
537.46	7.82	1010.00	93973.21
538.51	7.82	1010.00	94196.43
539.56	7.82	1010.00	93973.21
540.61	7.82	1010.00	93973.21
541.66	7.82	1010.00	93973.21
542.71	7.82	1010.00	94196.43
543.76	7.82	1010.00	94196.43
544.81	7.82	1011.00	94196.43
545.86	7.82	1010.00	93973.21
546.91	7.82	1010.00	93973.21
547.96	7.82	1011.00	93973.21
549.02	7.82	1010.00	93973.21
550.07	7.82	1011.00	93973.21
551.12	7.82	1011.00	94196.43
552.17	7.82	1010.00	93973.21
553.22	7.82	1007.00	93973.21
554.27	7.82	1009.00	93973.21
555.32	7.82	1009.00	97321.43
556.37	7.82	1009.00	97544.64
557.42	7.82	1010.00	97321.43
558.47	7.82	1008.00	97544.64
559.52	7.82	1006.00	97544.64
560.58	7.82	1005.00	97321.43
